's07hs002.cg1' 'Dec  1 2010 18:14' 'I'         15.    1  'TIME'   51  'RAW'
  Filename         Date            Scan       Mon    Prf  Base   #pts  Type
s07hs sample sd07 pt_naf in 0p1 m sulfuric acid an
 460    1  500  512 608 512   0   5.0010     0.00000 0.00000   0.00000    1
 Collimation      Mosaic    Wavelength   T-Start   Incr.   H-field #Det    
  1       0.20000    0.00400    0.40000
  2       0.20000    0.00400    0.40000
  3       0.50000    0.01000    1.00000
  4       1.00000    0.02000    2.00000
  5       0.60000    0.01200    1.20000
  6       0.80000    0.01600    1.60000
 Mot:    Start       Step      End
     A1         A2         A3         A4       MIN      MONITOR      COUNTS 
      0.200      0.200      0.500      1.000    0.25        5713         750
      0.204      0.204      0.510      1.020    0.25        5922         721
      0.208      0.208      0.520      1.040    0.25        5798         677
      0.212      0.212      0.530      1.060    0.25        5939         615
      0.216      0.216      0.540      1.080    0.25        5977         533
      0.220      0.220      0.550      1.100    0.25        5960         426
      0.224      0.224      0.560      1.120    0.25        6192         295
      0.228      0.228      0.570      1.140    0.25        6286         226
      0.232      0.232      0.580      1.160    0.25        6273         143
      0.236      0.236      0.590      1.180    0.25        6294          91
      0.240      0.240      0.600      1.200    0.25        6213          33
      0.244      0.244      0.610      1.220    0.25        6388          33
      0.248      0.248      0.620      1.240    0.25        6620          23
      0.252      0.252      0.630      1.260    0.25        6488          34
      0.256      0.256      0.640      1.280    0.25        6683          39
      0.260      0.260      0.650      1.300    0.25        6760          72
      0.264      0.264      0.660      1.320    0.25        6764          91
      0.268      0.268      0.670      1.340    0.25        6732          89
      0.272      0.272      0.680      1.360    0.25        6937         115
      0.276      0.276      0.690      1.380    0.25        6953         112
      0.280      0.280      0.700      1.400    0.25        7101         109
      0.284      0.284      0.710      1.420    0.25        7025         111
      0.288      0.288      0.720      1.440    0.25        7134          82
      0.292      0.292      0.730      1.460    0.25        7134          69
      0.296      0.296      0.740      1.480    0.25        7257          55
      0.300      0.300      0.750      1.500    0.25        7416          46
      0.304      0.304      0.760      1.520    0.25        7480          24
      0.308      0.308      0.770      1.540    0.25        7564          34
      0.312      0.312      0.780      1.560    0.25        7441          19
      0.316      0.316      0.790      1.580    0.25        7508          23
      0.320      0.320      0.800      1.600    0.25        7724          42
      0.324      0.324      0.810      1.620    0.25        7585          51
      0.328      0.328      0.820      1.640    0.25        7807          72
      0.332      0.332      0.830      1.660    0.25        7758          64
      0.336      0.336      0.840      1.680    0.25        7984          72
      0.340      0.340      0.850      1.700    0.25        7926          67
      0.344      0.344      0.860      1.720    0.25        7905          68
      0.348      0.348      0.870      1.740    0.25        8008          54
      0.352      0.352      0.880      1.760    0.25        8190          54
      0.356      0.356      0.890      1.780    0.25        8155          46
      0.360      0.360      0.900      1.800    0.25        8243          41
      0.364      0.364      0.910      1.820    0.25        8360          27
      0.368      0.368      0.920      1.840    0.25        8501          31
      0.372      0.372      0.930      1.860    0.25        8502          35
      0.376      0.376      0.940      1.880    0.25        8590          24
      0.380      0.380      0.950      1.900    0.25        8629          42
      0.384      0.384      0.960      1.920    0.25        8662          49
      0.388      0.388      0.970      1.940    0.25        8712          65
      0.392      0.392      0.980      1.960    0.25        8841          88
      0.396      0.396      0.990      1.980    0.25        8977         113
      0.400      0.400      1.000      2.000    0.25        8720         121
