's07sn012.cg1' 'Dec  2 2010 18:12' 'I'         30.    1  'TIME'   64  'RAW'
  Filename         Date            Scan       Mon    Prf  Base   #pts  Type
s07sn sd07 pt_naf 0p1 m h2so4 0p175 v pt surf     
 460    1  500  512 608 512   0   5.0010     0.00000 0.00000   0.00000    1
 Collimation      Mosaic    Wavelength   T-Start   Incr.   H-field #Det    
  1       1.60000    0.01600    2.60800
  2       1.60000    0.01600    2.60800
  3       4.00000    0.04000    6.52000
  4       8.00000    0.08000   13.04000
  5       4.80000    0.04800    7.82400
  6       6.40000    0.06400   10.43200
 Mot:    Start       Step      End
     A1         A2         A3         A4       MIN      MONITOR      COUNTS 
      1.600      1.600      4.000      8.000    0.50       54085          93
      1.616      1.616      4.040      8.080    0.50       54887          81
      1.632      1.632      4.080      8.160    0.50       55502          83
      1.648      1.648      4.120      8.240    0.50       55846         101
      1.664      1.664      4.160      8.320    0.50       56597          99
      1.680      1.680      4.200      8.400    0.50       56981          97
      1.696      1.696      4.240      8.480    0.50       57233         116
      1.712      1.712      4.280      8.560    0.50       57664         103
      1.728      1.728      4.320      8.640    0.50       58320         106
      1.744      1.744      4.360      8.720    0.50       59253          94
      1.760      1.760      4.400      8.800    0.50       59195         105
      1.776      1.776      4.440      8.880    0.50       59712          96
      1.792      1.792      4.480      8.960    0.50       60725          93
      1.808      1.808      4.520      9.040    0.50       60562         122
      1.824      1.824      4.560      9.120    0.50       61656         116
      1.840      1.840      4.600      9.200    0.50       61952         117
      1.856      1.856      4.640      9.280    0.50       62435         115
      1.872      1.872      4.680      9.360    0.50       62336         111
      1.888      1.888      4.720      9.440    0.50       62988         144
      1.904      1.904      4.760      9.520    0.50       64132         120
      1.920      1.920      4.800      9.600    0.50       64122         146
      1.936      1.936      4.840      9.680    0.50       64199         125
      1.952      1.952      4.880      9.760    0.50       64975         152
      1.968      1.968      4.920      9.840    0.50       65667         131
      1.984      1.984      4.960      9.920    0.50       66251         150
      2.000      2.000      5.000     10.000    0.50       66655         149
      2.016      2.016      5.040     10.080    0.50       66913         141
      2.032      2.032      5.080     10.160    0.50       67772         138
      2.048      2.048      5.120     10.240    0.50       68385         146
      2.064      2.064      5.160     10.320    0.50       69111         149
      2.080      2.080      5.200     10.400    0.50       69569         136
      2.096      2.096      5.240     10.480    0.50       69331         155
      2.112      2.112      5.280     10.560    0.50       70334         138
      2.128      2.128      5.320     10.640    0.50       70800         181
      2.144      2.144      5.360     10.720    0.50       70782         180
      2.160      2.160      5.400     10.800    0.50       71343         177
      2.176      2.176      5.440     10.880    0.50       72110         188
      2.192      2.192      5.480     10.960    0.50       72295         175
      2.208      2.208      5.520     11.040    0.50       73114         182
      2.224      2.224      5.560     11.120    0.50       73262         180
      2.240      2.240      5.600     11.200    0.50       74075         196
      2.256      2.256      5.640     11.280    0.50       74726         206
      2.272      2.272      5.680     11.360    0.50       74606         194
      2.288      2.288      5.720     11.440    0.50       75237         235
      2.304      2.304      5.760     11.520    0.50       75126         199
      2.320      2.320      5.800     11.600    0.50       76428         199
      2.336      2.336      5.840     11.680    0.50       76509         225
      2.352      2.352      5.880     11.760    0.50       77232         213
      2.368      2.368      5.920     11.840    0.50       77876         221
      2.384      2.384      5.960     11.920    0.50       77967         215
      2.400      2.400      6.000     12.000    0.50       78252         189
      2.416      2.416      6.040     12.080    0.50       79130         228
      2.432      2.432      6.080     12.160    0.50       79326         253
      2.448      2.448      6.120     12.240    0.50       79807         221
      2.464      2.464      6.160     12.320    0.50       80831         280
      2.480      2.480      6.200     12.400    0.50       80678         219
      2.496      2.496      6.240     12.480    0.50       80453         249
      2.512      2.512      6.280     12.560    0.50       81403         261
      2.528      2.528      6.320     12.640    0.50       82657         276
      2.544      2.544      6.360     12.720    0.50       82889         266
      2.560      2.560      6.400     12.800    0.50       83369         267
      2.576      2.576      6.440     12.880    0.50       83784         257
      2.592      2.592      6.480     12.960    0.50       84120         263
      2.608      2.608      6.520     13.040    0.50       85294         268
