's07so005.cg1' 'Dec  1 2010 23:04' 'I'         30.    1  'TIME'  101  'RAW'
  Filename         Date            Scan       Mon    Prf  Base   #pts  Type
s07so sd07 pt_naf 0p1 m h2so4 1p16 v oxide surf   
 460    1  500  512 608 512   0   5.0010     0.00000 0.00000   0.00000    1
 Collimation      Mosaic    Wavelength   T-Start   Incr.   H-field #Det    
  1       0.80000    0.00800    1.60000
  2       0.80000    0.00800    1.60000
  3       2.00000    0.02000    4.00000
  4       4.00000    0.04000    8.00000
  5       2.40000    0.02400    4.80000
  6       3.20000    0.03200    6.40000
 Mot:    Start       Step      End
     A1         A2         A3         A4       MIN      MONITOR      COUNTS 
      0.800      0.800      2.000      4.000    0.50       30219          75
      0.808      0.808      2.020      4.040    0.50       30684          83
      0.816      0.816      2.040      4.080    0.50       30900          74
      0.824      0.824      2.060      4.120    0.50       30954          45
      0.832      0.832      2.080      4.160    0.50       31367          57
      0.840      0.840      2.100      4.200    0.50       31267          61
      0.848      0.848      2.120      4.240    0.50       31533          55
      0.856      0.856      2.140      4.280    0.50       32084          57
      0.864      0.864      2.160      4.320    0.50       32111          42
      0.872      0.872      2.180      4.360    0.50       32222          41
      0.880      0.880      2.200      4.400    0.50       32660          30
      0.888      0.888      2.220      4.440    0.50       32849          22
      0.896      0.896      2.240      4.480    0.50       32863          27
      0.904      0.904      2.260      4.520    0.50       33525          24
      0.912      0.912      2.280      4.560    0.50       33849          24
      0.920      0.920      2.300      4.600    0.50       34191          25
      0.928      0.928      2.320      4.640    0.50       34293          25
      0.936      0.936      2.340      4.680    0.50       34662          18
      0.944      0.944      2.360      4.720    0.50       34652          23
      0.952      0.952      2.380      4.760    0.50       35232          18
      0.960      0.960      2.400      4.800    0.50       35539          21
      0.968      0.968      2.420      4.840    0.50       35580          16
      0.976      0.976      2.440      4.880    0.50       35574          23
      0.984      0.984      2.460      4.920    0.50       35922          18
      0.992      0.992      2.480      4.960    0.50       36325          18
      1.000      1.000      2.500      5.000    0.50       36307          27
      1.008      1.008      2.520      5.040    0.50       36370          34
      1.016      1.016      2.540      5.080    0.50       36706          25
      1.024      1.024      2.560      5.120    0.50       36926          39
      1.032      1.032      2.580      5.160    0.50       37572          36
      1.040      1.040      2.600      5.200    0.50       37542          35
      1.048      1.048      2.620      5.240    0.50       37665          38
      1.056      1.056      2.640      5.280    0.50       38125          49
      1.064      1.064      2.660      5.320    0.50       38213          34
      1.072      1.072      2.680      5.360    0.50       38610          50
      1.080      1.080      2.700      5.400    0.50       38387          50
      1.088      1.088      2.720      5.440    0.50       39005          29
      1.096      1.096      2.740      5.480    0.50       39160          49
      1.104      1.104      2.760      5.520    0.50       39790          52
      1.112      1.112      2.780      5.560    0.50       39582          58
      1.120      1.120      2.800      5.600    0.50       40131          47
      1.128      1.128      2.820      5.640    0.50       40172          45
      1.136      1.136      2.840      5.680    0.50       40726          50
      1.144      1.144      2.860      5.720    0.50       40534          62
      1.152      1.152      2.880      5.760    0.50       41083          53
      1.160      1.160      2.900      5.800    0.50       40860          56
      1.168      1.168      2.920      5.840    0.50       41251          61
      1.176      1.176      2.940      5.880    0.50       41675          47
      1.184      1.184      2.960      5.920    0.50       42090          62
      1.192      1.192      2.980      5.960    0.50       41969          53
      1.200      1.200      3.000      6.000    0.50       42603          71
      1.208      1.208      3.020      6.040    0.50       42415          73
      1.216      1.216      3.040      6.080    0.50       42803          63
      1.224      1.224      3.060      6.120    0.50       42965          53
      1.232      1.232      3.080      6.160    0.50       43164          54
      1.240      1.240      3.100      6.200    0.50       43455          57
      1.248      1.248      3.120      6.240    0.50       44175          70
      1.256      1.256      3.140      6.280    0.50       43836          72
      1.264      1.264      3.160      6.320    0.50       43850          62
      1.272      1.272      3.180      6.360    0.50       44324          58
      1.280      1.280      3.200      6.400    0.50       44907          73
      1.288      1.288      3.220      6.440    0.50       45306          60
      1.296      1.296      3.240      6.480    0.50       45428          64
      1.304      1.304      3.260      6.520    0.50       45576          71
      1.312      1.312      3.280      6.560    0.50       45586          67
      1.320      1.320      3.300      6.600    0.50       45747          71
      1.328      1.328      3.320      6.640    0.50       46261          66
      1.336      1.336      3.340      6.680    0.50       46174          72
      1.344      1.344      3.360      6.720    0.50       46678          83
      1.352      1.352      3.380      6.760    0.50       47241          65
      1.360      1.360      3.400      6.800    0.50       47372          68
      1.368      1.368      3.420      6.840    0.50       47318          74
      1.376      1.376      3.440      6.880    0.50       47557          63
      1.384      1.384      3.460      6.920    0.50       48093          70
      1.392      1.392      3.480      6.960    0.50       48195          85
      1.400      1.400      3.500      7.000    0.50       48231          68
      1.408      1.408      3.520      7.040    0.50       48520          73
      1.416      1.416      3.540      7.080    0.50       48909          81
      1.424      1.424      3.560      7.120    0.50       48969          66
      1.432      1.432      3.580      7.160    0.50       49336          80
      1.440      1.440      3.600      7.200    0.50       49909          71
      1.448      1.448      3.620      7.240    0.50       49565          65
      1.456      1.456      3.640      7.280    0.50       50288          65
      1.464      1.464      3.660      7.320    0.50       50466          67
      1.472      1.472      3.680      7.360    0.50       50886          63
      1.480      1.480      3.700      7.400    0.50       51122          66
      1.488      1.488      3.720      7.440    0.50       50780          70
      1.496      1.496      3.740      7.480    0.50       51135          54
      1.504      1.504      3.760      7.520    0.50       51572          77
      1.512      1.512      3.780      7.560    0.50       51922          72
      1.520      1.520      3.800      7.600    0.50       51982          74
      1.528      1.528      3.820      7.640    0.50       52277          78
      1.536      1.536      3.840      7.680    0.50       52865          87
      1.544      1.544      3.860      7.720    0.50       53140          68
      1.552      1.552      3.880      7.760    0.50       53510          75
      1.560      1.560      3.900      7.800    0.50       53070          74
      1.568      1.568      3.920      7.840    0.50       53718          90
      1.576      1.576      3.940      7.880    0.50       54263          89
      1.584      1.584      3.960      7.920    0.50       54167          64
      1.592      1.592      3.980      7.960    0.50       54621          84
      1.600      1.600      4.000      8.000    0.50       54450          91
