's07so014.cg1' 'Dec  2 2010 04:41' 'I'         60.    1  'TIME'   76  'RAW'
  Filename         Date            Scan       Mon    Prf  Base   #pts  Type
s07so sd07 pt_naf 0p1 m h2so4 1p16 v oxide surf   
 460    1  500  512 608 512   0   5.0010     0.00000 0.00000   0.00000    1
 Collimation      Mosaic    Wavelength   T-Start   Incr.   H-field #Det    
  1       2.60000    0.00000    2.60000
  2       2.60000    0.00000    2.60000
  3       6.50000    0.04000    9.50000
  4      13.00000    0.08000   19.00000
  5       7.80000    0.00000    7.80000
  6      10.40000    0.00000   10.40000
 Mot:    Start       Step      End
     A3         A4       MIN      MONITOR      COUNTS 
      6.500     13.000    1.00      168002         561
      6.540     13.080    1.00      168043         519
      6.580     13.160    1.00      168740         559
      6.620     13.240    1.00      168841         535
      6.660     13.320    1.00      168688         545
      6.700     13.400    1.00      169336         534
      6.740     13.480    1.00      169492         570
      6.780     13.560    1.00      168089         527
      6.820     13.640    1.00      169267         470
      6.860     13.720    1.00      168960         569
      6.900     13.800    1.00      169298         522
      6.940     13.880    1.00      169100         591
      6.980     13.960    1.00      169256         540
      7.020     14.040    1.00      168969         513
      7.060     14.120    1.00      168461         511
      7.100     14.200    1.00      168897         522
      7.140     14.280    1.00      168764         507
      7.180     14.360    1.00      169350         536
      7.220     14.440    1.00      168237         531
      7.260     14.520    1.00      167398         493
      7.300     14.600    1.00      169242         506
      7.340     14.680    1.00      169462         513
      7.380     14.760    1.00      168465         531
      7.420     14.840    1.00      169563         530
      7.460     14.920    1.00      168521         535
      7.500     15.000    1.00      169088         484
      7.540     15.080    1.00      168643         502
      7.580     15.160    1.00      168775         521
      7.620     15.240    1.00      169031         508
      7.660     15.320    1.00      168269         546
      7.700     15.400    1.00      168907         500
      7.740     15.480    1.00      168887         494
      7.780     15.560    1.00      169094         468
      7.820     15.640    1.00      169502         490
      7.860     15.720    1.00      169449         437
      7.900     15.800    1.00      168480         534
      7.940     15.880    1.00      169022         455
      7.980     15.960    1.00      168870         526
      8.020     16.040    1.00      168495         471
      8.060     16.120    1.00      169331         486
      8.100     16.200    1.00      168113         490
      8.140     16.280    1.00      168756         454
      8.180     16.360    1.00      169440         479
      8.220     16.440    1.00      167980         497
      8.260     16.520    1.00      168696         494
      8.300     16.600    1.00      169110         505
      8.340     16.680    1.00      169742         482
      8.380     16.760    1.00      168713         446
      8.420     16.840    1.00      168013         503
      8.460     16.920    1.00      169497         433
      8.500     17.000    1.00      169260         480
      8.540     17.080    1.00      169178         466
      8.580     17.160    1.00      169850         446
      8.620     17.240    1.00      169080         477
      8.660     17.320    1.00      168407         448
      8.700     17.400    1.00      169697         479
      8.740     17.480    1.00      167939         492
      8.780     17.560    1.00      169397         484
      8.820     17.640    1.00      168662         481
      8.860     17.720    1.00      169064         448
      8.900     17.800    1.00      169147         457
      8.940     17.880    1.00      168945         447
      8.980     17.960    1.00      169883         464
      9.020     18.040    1.00      169269         494
      9.060     18.120    1.00      168945         418
      9.100     18.200    1.00      169044         458
      9.140     18.280    1.00      169219         448
      9.180     18.360    1.00      169748         457
      9.220     18.440    1.00      169049         472
      9.260     18.520    1.00      169377         497
      9.300     18.600    1.00      168935         447
      9.340     18.680    1.00      169300         494
      9.380     18.760    1.00      168960         450
      9.420     18.840    1.00      168372         401
      9.460     18.920    1.00      168741         464
      9.500     19.000    1.00      169202         456
