's07so011.cg1' 'Dec  2 2010 02:16' 'I'         30.    1  'TIME'   51  'RAW'
  Filename         Date            Scan       Mon    Prf  Base   #pts  Type
s07so sd07 pt_naf 0p1 m h2so4 1p16 v oxide surf   
 460    1  500  512 608 512   0   5.0010     0.00000 0.00000   0.00000    1
 Collimation      Mosaic    Wavelength   T-Start   Incr.   H-field #Det    
  1       0.40000    0.00800    0.80000
  2       0.40000    0.00800    0.80000
  3       1.00000    0.02000    2.00000
  4       2.00000    0.04000    4.00000
  5       1.20000    0.02400    2.40000
  6       1.60000    0.03200    3.20000
 Mot:    Start       Step      End
     A1         A2         A3         A4       MIN      MONITOR      COUNTS 
      0.400      0.400      1.000      2.000    0.50       17630         566
      0.408      0.408      1.020      2.040    0.50       18190         552
      0.416      0.416      1.040      2.080    0.50       18389         549
      0.424      0.424      1.060      2.120    0.50       18346         489
      0.432      0.432      1.080      2.160    0.50       18648         475
      0.440      0.440      1.100      2.200    0.50       18993         456
      0.448      0.448      1.120      2.240    0.50       19318         505
      0.456      0.456      1.140      2.280    0.50       19301         589
      0.464      0.464      1.160      2.320    0.50       19765         649
      0.472      0.472      1.180      2.360    0.50       20189         685
      0.480      0.480      1.200      2.400    0.50       20099         756
      0.488      0.488      1.220      2.440    0.50       20450         721
      0.496      0.496      1.240      2.480    0.50       20514         690
      0.504      0.504      1.260      2.520    0.50       21029         573
      0.512      0.512      1.280      2.560    0.50       20932         533
      0.520      0.520      1.300      2.600    0.50       21783         482
      0.528      0.528      1.320      2.640    0.50       21664         478
      0.536      0.536      1.340      2.680    0.50       21885         473
      0.544      0.544      1.360      2.720    0.50       22032         453
      0.552      0.552      1.380      2.760    0.50       22549         503
      0.560      0.560      1.400      2.800    0.50       22689         471
      0.568      0.568      1.420      2.840    0.50       23251         470
      0.576      0.576      1.440      2.880    0.50       23212         463
      0.584      0.584      1.460      2.920    0.50       23392         425
      0.592      0.592      1.480      2.960    0.50       23491         403
      0.600      0.600      1.500      3.000    0.50       23908         347
      0.608      0.608      1.520      3.040    0.50       24122         297
      0.616      0.616      1.540      3.080    0.50       24544         285
      0.624      0.624      1.560      3.120    0.50       24805         288
      0.632      0.632      1.580      3.160    0.50       24953         287
      0.640      0.640      1.600      3.200    0.50       25359         251
      0.648      0.648      1.620      3.240    0.50       25814         299
      0.656      0.656      1.640      3.280    0.50       25589         259
      0.664      0.664      1.660      3.320    0.50       25738         290
      0.672      0.672      1.680      3.360    0.50       25838         244
      0.680      0.680      1.700      3.400    0.50       26242         236
      0.688      0.688      1.720      3.440    0.50       26772         204
      0.696      0.696      1.740      3.480    0.50       27187         170
      0.704      0.704      1.760      3.520    0.50       27096         174
      0.712      0.712      1.780      3.560    0.50       27466         175
      0.720      0.720      1.800      3.600    0.50       27190         130
      0.728      0.728      1.820      3.640    0.50       27893         138
      0.736      0.736      1.840      3.680    0.50       28226         147
      0.744      0.744      1.860      3.720    0.50       27911         149
      0.752      0.752      1.880      3.760    0.50       28704         127
      0.760      0.760      1.900      3.800    0.50       28661         120
      0.768      0.768      1.920      3.840    0.50       29232         125
      0.776      0.776      1.940      3.880    0.50       29406         106
      0.784      0.784      1.960      3.920    0.50       29674          95
      0.792      0.792      1.980      3.960    0.50       29782          86
      0.800      0.800      2.000      4.000    0.50       30383          83
