's07sn005.cg1' 'Dec  2 2010 13:51' 'I'         30.    1  'TIME'  101  'RAW'
  Filename         Date            Scan       Mon    Prf  Base   #pts  Type
s07sn sd07 pt_naf 0p1 m h2so4 0p175 v pt surf     
 460    1  500  512 608 512   0   5.0010     0.00000 0.00000   0.00000    1
 Collimation      Mosaic    Wavelength   T-Start   Incr.   H-field #Det    
  1       0.80000    0.00800    1.60000
  2       0.80000    0.00800    1.60000
  3       2.00000    0.02000    4.00000
  4       4.00000    0.04000    8.00000
  5       2.40000    0.02400    4.80000
  6       3.20000    0.03200    6.40000
 Mot:    Start       Step      End
     A1         A2         A3         A4       MIN      MONITOR      COUNTS 
      0.800      0.800      2.000      4.000    0.50       29919          93
      0.808      0.808      2.020      4.040    0.50       30307          79
      0.816      0.816      2.040      4.080    0.50       30575          67
      0.824      0.824      2.060      4.120    0.50       30890          56
      0.832      0.832      2.080      4.160    0.50       31111          68
      0.840      0.840      2.100      4.200    0.50       31417          69
      0.848      0.848      2.120      4.240    0.50       31622          48
      0.856      0.856      2.140      4.280    0.50       32209          47
      0.864      0.864      2.160      4.320    0.50       31901          32
      0.872      0.872      2.180      4.360    0.50       32356          33
      0.880      0.880      2.200      4.400    0.50       32787          32
      0.888      0.888      2.220      4.440    0.50       32988          27
      0.896      0.896      2.240      4.480    0.50       33283          48
      0.904      0.904      2.260      4.520    0.50       33359          25
      0.912      0.912      2.280      4.560    0.50       33494          31
      0.920      0.920      2.300      4.600    0.50       33876          23
      0.928      0.928      2.320      4.640    0.50       33976          17
      0.936      0.936      2.340      4.680    0.50       34611          23
      0.944      0.944      2.360      4.720    0.50       34728          19
      0.952      0.952      2.380      4.760    0.50       34913          22
      0.960      0.960      2.400      4.800    0.50       35533          29
      0.968      0.968      2.420      4.840    0.50       35382          20
      0.976      0.976      2.440      4.880    0.50       35695          19
      0.984      0.984      2.460      4.920    0.50       35972          29
      0.992      0.992      2.480      4.960    0.50       35876          31
      1.000      1.000      2.500      5.000    0.50       36314          24
      1.008      1.008      2.520      5.040    0.50       36829          29
      1.016      1.016      2.540      5.080    0.50       36827          36
      1.024      1.024      2.560      5.120    0.50       37346          39
      1.032      1.032      2.580      5.160    0.50       37463          27
      1.040      1.040      2.600      5.200    0.50       37084          37
      1.048      1.048      2.620      5.240    0.50       38000          43
      1.056      1.056      2.640      5.280    0.50       37846          31
      1.064      1.064      2.660      5.320    0.50       38639          33
      1.072      1.072      2.680      5.360    0.50       38314          41
      1.080      1.080      2.700      5.400    0.50       38840          52
      1.088      1.088      2.720      5.440    0.50       39448          42
      1.096      1.096      2.740      5.480    0.50       39548          48
      1.104      1.104      2.760      5.520    0.50       39534          45
      1.112      1.112      2.780      5.560    0.50       39501          38
      1.120      1.120      2.800      5.600    0.50       40099          49
      1.128      1.128      2.820      5.640    0.50       40442          50
      1.136      1.136      2.840      5.680    0.50       40167          56
      1.144      1.144      2.860      5.720    0.50       41035          50
      1.152      1.152      2.880      5.760    0.50       41184          45
      1.160      1.160      2.900      5.800    0.50       40859          51
      1.168      1.168      2.920      5.840    0.50       41683          53
      1.176      1.176      2.940      5.880    0.50       41498          56
      1.184      1.184      2.960      5.920    0.50       42011          65
      1.192      1.192      2.980      5.960    0.50       41820          52
      1.200      1.200      3.000      6.000    0.50       42303          59
      1.208      1.208      3.020      6.040    0.50       42417          60
      1.216      1.216      3.040      6.080    0.50       43249          65
      1.224      1.224      3.060      6.120    0.50       43046          75
      1.232      1.232      3.080      6.160    0.50       43611          55
      1.240      1.240      3.100      6.200    0.50       43511          67
      1.248      1.248      3.120      6.240    0.50       43601          49
      1.256      1.256      3.140      6.280    0.50       43762          62
      1.264      1.264      3.160      6.320    0.50       44617          55
      1.272      1.272      3.180      6.360    0.50       44418          59
      1.280      1.280      3.200      6.400    0.50       45035          47
      1.288      1.288      3.220      6.440    0.50       44831          46
      1.296      1.296      3.240      6.480    0.50       45659          64
      1.304      1.304      3.260      6.520    0.50       45629          58
      1.312      1.312      3.280      6.560    0.50       45917          67
      1.320      1.320      3.300      6.600    0.50       46152          68
      1.328      1.328      3.320      6.640    0.50       45941          59
      1.336      1.336      3.340      6.680    0.50       46668          63
      1.344      1.344      3.360      6.720    0.50       46785          64
      1.352      1.352      3.380      6.760    0.50       47092          75
      1.360      1.360      3.400      6.800    0.50       47293          54
      1.368      1.368      3.420      6.840    0.50       47053          67
      1.376      1.376      3.440      6.880    0.50       48124          55
      1.384      1.384      3.460      6.920    0.50       47968          65
      1.392      1.392      3.480      6.960    0.50       48367          62
      1.400      1.400      3.500      7.000    0.50       48557          77
      1.408      1.408      3.520      7.040    0.50       48977          65
      1.416      1.416      3.540      7.080    0.50       48794          65
      1.424      1.424      3.560      7.120    0.50       49271          80
      1.432      1.432      3.580      7.160    0.50       49392          65
      1.440      1.440      3.600      7.200    0.50       49495          67
      1.448      1.448      3.620      7.240    0.50       49724          68
      1.456      1.456      3.640      7.280    0.50       49821          68
      1.464      1.464      3.660      7.320    0.50       50598          72
      1.472      1.472      3.680      7.360    0.50       50764          74
      1.480      1.480      3.700      7.400    0.50       50919          73
      1.488      1.488      3.720      7.440    0.50       51091          67
      1.496      1.496      3.740      7.480    0.50       51494          81
      1.504      1.504      3.760      7.520    0.50       51459          78
      1.512      1.512      3.780      7.560    0.50       51785          75
      1.520      1.520      3.800      7.600    0.50       52222         103
      1.528      1.528      3.820      7.640    0.50       52906          75
      1.536      1.536      3.840      7.680    0.50       52587          69
      1.544      1.544      3.860      7.720    0.50       53444          74
      1.552      1.552      3.880      7.760    0.50       52806          80
      1.560      1.560      3.900      7.800    0.50       53566          70
      1.568      1.568      3.920      7.840    0.50       53598          91
      1.576      1.576      3.940      7.880    0.50       54328          80
      1.584      1.584      3.960      7.920    0.50       53907          80
      1.592      1.592      3.980      7.960    0.50       53995          69
      1.600      1.600      4.000      8.000    0.50       54685          91
