's07so034.cg1' 'Dec  2 2010 09:55' 'I'         30.    1  'TIME'   51  'RAW'
  Filename         Date            Scan       Mon    Prf  Base   #pts  Type
s07so sd07 pt_naf 0p1 m h2so4 1p16 v oxide surf   
 460    1  500  512 608 512   0   5.0010     0.00000 0.00000   0.00000    1
 Collimation      Mosaic    Wavelength   T-Start   Incr.   H-field #Det    
  1       0.40000    0.00800    0.80000
  2       0.40000    0.00800    0.80000
  3       1.00000    0.02000    2.00000
  4       2.00000    0.04000    4.00000
  5       1.20000    0.02400    2.40000
  6       1.60000    0.03200    3.20000
 Mot:    Start       Step      End
     A1         A2         A3         A4       MIN      MONITOR      COUNTS 
      0.400      0.400      1.000      2.000    0.50       17859         618
      0.408      0.408      1.020      2.040    0.50       18317         666
      0.416      0.416      1.040      2.080    0.50       18541         542
      0.424      0.424      1.060      2.120    0.50       18700         518
      0.432      0.432      1.080      2.160    0.50       19050         479
      0.440      0.440      1.100      2.200    0.50       18891         448
      0.448      0.448      1.120      2.240    0.50       19419         558
      0.456      0.456      1.140      2.280    0.50       19473         593
      0.464      0.464      1.160      2.320    0.50       19926         693
      0.472      0.472      1.180      2.360    0.50       19942         803
      0.480      0.480      1.200      2.400    0.50       20067         794
      0.488      0.488      1.220      2.440    0.50       20690         727
      0.496      0.496      1.240      2.480    0.50       20864         762
      0.504      0.504      1.260      2.520    0.50       21165         676
      0.512      0.512      1.280      2.560    0.50       21134         570
      0.520      0.520      1.300      2.600    0.50       21565         516
      0.528      0.528      1.320      2.640    0.50       22047         473
      0.536      0.536      1.340      2.680    0.50       22127         471
      0.544      0.544      1.360      2.720    0.50       22361         502
      0.552      0.552      1.380      2.760    0.50       22679         530
      0.560      0.560      1.400      2.800    0.50       22713         550
      0.568      0.568      1.420      2.840    0.50       23054         484
      0.576      0.576      1.440      2.880    0.50       23319         494
      0.584      0.584      1.460      2.920    0.50       23601         442
      0.592      0.592      1.480      2.960    0.50       23710         410
      0.600      0.600      1.500      3.000    0.50       23730         336
      0.608      0.608      1.520      3.040    0.50       24183         308
      0.616      0.616      1.540      3.080    0.50       24693         298
      0.624      0.624      1.560      3.120    0.50       24615         300
      0.632      0.632      1.580      3.160    0.50       25283         285
      0.640      0.640      1.600      3.200    0.50       25172         290
      0.648      0.648      1.620      3.240    0.50       25345         283
      0.656      0.656      1.640      3.280    0.50       25689         301
      0.664      0.664      1.660      3.320    0.50       25872         284
      0.672      0.672      1.680      3.360    0.50       26063         229
      0.680      0.680      1.700      3.400    0.50       26611         232
      0.688      0.688      1.720      3.440    0.50       26826         194
      0.696      0.696      1.740      3.480    0.50       27071         194
      0.704      0.704      1.760      3.520    0.50       27025         179
      0.712      0.712      1.780      3.560    0.50       27641         170
      0.720      0.720      1.800      3.600    0.50       27827         133
      0.728      0.728      1.820      3.640    0.50       27981         152
      0.736      0.736      1.840      3.680    0.50       28323         141
      0.744      0.744      1.860      3.720    0.50       28716         162
      0.752      0.752      1.880      3.760    0.50       29177         135
      0.760      0.760      1.900      3.800    0.50       28806         142
      0.768      0.768      1.920      3.840    0.50       29403         114
      0.776      0.776      1.940      3.880    0.50       29818         116
      0.784      0.784      1.960      3.920    0.50       29946          92
      0.792      0.792      1.980      3.960    0.50       29869          74
      0.800      0.800      2.000      4.000    0.50       29904          75
