's07so012.cg1' 'Dec  2 2010 02:50' 'I'         30.    1  'TIME'  101  'RAW'
  Filename         Date            Scan       Mon    Prf  Base   #pts  Type
s07so sd07 pt_naf 0p1 m h2so4 1p16 v oxide surf   
 460    1  500  512 608 512   0   5.0010     0.00000 0.00000   0.00000    1
 Collimation      Mosaic    Wavelength   T-Start   Incr.   H-field #Det    
  1       0.80000    0.00800    1.60000
  2       0.80000    0.00800    1.60000
  3       2.00000    0.02000    4.00000
  4       4.00000    0.04000    8.00000
  5       2.40000    0.02400    4.80000
  6       3.20000    0.03200    6.40000
 Mot:    Start       Step      End
     A1         A2         A3         A4       MIN      MONITOR      COUNTS 
      0.800      0.800      2.000      4.000    0.50       29838          90
      0.808      0.808      2.020      4.040    0.50       30236          74
      0.816      0.816      2.040      4.080    0.50       30870          60
      0.824      0.824      2.060      4.120    0.50       31213          64
      0.832      0.832      2.080      4.160    0.50       31074          65
      0.840      0.840      2.100      4.200    0.50       31437          59
      0.848      0.848      2.120      4.240    0.50       31634          37
      0.856      0.856      2.140      4.280    0.50       31983          44
      0.864      0.864      2.160      4.320    0.50       32543          36
      0.872      0.872      2.180      4.360    0.50       32457          34
      0.880      0.880      2.200      4.400    0.50       32568          24
      0.888      0.888      2.220      4.440    0.50       33140          26
      0.896      0.896      2.240      4.480    0.50       33092          31
      0.904      0.904      2.260      4.520    0.50       33575          17
      0.912      0.912      2.280      4.560    0.50       33685          19
      0.920      0.920      2.300      4.600    0.50       34138          23
      0.928      0.928      2.320      4.640    0.50       34133          17
      0.936      0.936      2.340      4.680    0.50       34420          20
      0.944      0.944      2.360      4.720    0.50       34841          31
      0.952      0.952      2.380      4.760    0.50       34723          16
      0.960      0.960      2.400      4.800    0.50       35061          25
      0.968      0.968      2.420      4.840    0.50       35274          32
      0.976      0.976      2.440      4.880    0.50       35522          24
      0.984      0.984      2.460      4.920    0.50       35883          23
      0.992      0.992      2.480      4.960    0.50       36231          27
      1.000      1.000      2.500      5.000    0.50       36424          29
      1.008      1.008      2.520      5.040    0.50       36709          25
      1.016      1.016      2.540      5.080    0.50       36342          30
      1.024      1.024      2.560      5.120    0.50       36840          35
      1.032      1.032      2.580      5.160    0.50       37375          39
      1.040      1.040      2.600      5.200    0.50       37312          43
      1.048      1.048      2.620      5.240    0.50       37737          57
      1.056      1.056      2.640      5.280    0.50       38064          39
      1.064      1.064      2.660      5.320    0.50       38158          51
      1.072      1.072      2.680      5.360    0.50       38515          61
      1.080      1.080      2.700      5.400    0.50       38749          44
      1.088      1.088      2.720      5.440    0.50       39080          44
      1.096      1.096      2.740      5.480    0.50       39491          49
      1.104      1.104      2.760      5.520    0.50       39160          61
      1.112      1.112      2.780      5.560    0.50       39560          47
      1.120      1.120      2.800      5.600    0.50       39777          49
      1.128      1.128      2.820      5.640    0.50       40025          52
      1.136      1.136      2.840      5.680    0.50       40196          67
      1.144      1.144      2.860      5.720    0.50       40603          65
      1.152      1.152      2.880      5.760    0.50       40905          63
      1.160      1.160      2.900      5.800    0.50       41042          66
      1.168      1.168      2.920      5.840    0.50       41568          53
      1.176      1.176      2.940      5.880    0.50       41884          49
      1.184      1.184      2.960      5.920    0.50       41585          50
      1.192      1.192      2.980      5.960    0.50       42069          66
      1.200      1.200      3.000      6.000    0.50       41982          61
      1.208      1.208      3.020      6.040    0.50       42592          59
      1.216      1.216      3.040      6.080    0.50       42695          65
      1.224      1.224      3.060      6.120    0.50       42945          59
      1.232      1.232      3.080      6.160    0.50       43067          56
      1.240      1.240      3.100      6.200    0.50       43766          64
      1.248      1.248      3.120      6.240    0.50       43458          53
      1.256      1.256      3.140      6.280    0.50       44163          60
      1.264      1.264      3.160      6.320    0.50       43980          63
      1.272      1.272      3.180      6.360    0.50       44762          50
      1.280      1.280      3.200      6.400    0.50       44310          68
      1.288      1.288      3.220      6.440    0.50       44934          85
      1.296      1.296      3.240      6.480    0.50       45486          79
      1.304      1.304      3.260      6.520    0.50       44875          71
      1.312      1.312      3.280      6.560    0.50       45784          71
      1.320      1.320      3.300      6.600    0.50       45985          70
      1.328      1.328      3.320      6.640    0.50       46524          64
      1.336      1.336      3.340      6.680    0.50       46540          70
      1.344      1.344      3.360      6.720    0.50       46821          65
      1.352      1.352      3.380      6.760    0.50       46647          83
      1.360      1.360      3.400      6.800    0.50       47044          73
      1.368      1.368      3.420      6.840    0.50       47646          65
      1.376      1.376      3.440      6.880    0.50       47642          56
      1.384      1.384      3.460      6.920    0.50       47475          69
      1.392      1.392      3.480      6.960    0.50       48303          70
      1.400      1.400      3.500      7.000    0.50       48055          59
      1.408      1.408      3.520      7.040    0.50       48353          53
      1.416      1.416      3.540      7.080    0.50       48762          75
      1.424      1.424      3.560      7.120    0.50       48904          74
      1.432      1.432      3.580      7.160    0.50       49206          54
      1.440      1.440      3.600      7.200    0.50       49777          75
      1.448      1.448      3.620      7.240    0.50       49895          72
      1.456      1.456      3.640      7.280    0.50       49965          61
      1.464      1.464      3.660      7.320    0.50       50378          79
      1.472      1.472      3.680      7.360    0.50       50563          76
      1.480      1.480      3.700      7.400    0.50       50901          80
      1.488      1.488      3.720      7.440    0.50       50715          88
      1.496      1.496      3.740      7.480    0.50       51422          70
      1.504      1.504      3.760      7.520    0.50       51234          67
      1.512      1.512      3.780      7.560    0.50       51805          76
      1.520      1.520      3.800      7.600    0.50       51606          81
      1.528      1.528      3.820      7.640    0.50       52444          67
      1.536      1.536      3.840      7.680    0.50       52445          78
      1.544      1.544      3.860      7.720    0.50       52449          86
      1.552      1.552      3.880      7.760    0.50       53025          75
      1.560      1.560      3.900      7.800    0.50       53457          82
      1.568      1.568      3.920      7.840    0.50       53202          87
      1.576      1.576      3.940      7.880    0.50       53805          79
      1.584      1.584      3.960      7.920    0.50       53969          73
      1.592      1.592      3.980      7.960    0.50       54279          79
      1.600      1.600      4.000      8.000    0.50       54123          95
