's16ho002.cg1' 'Nov 30 2010 23:25' 'I'         15.    2  'TIME'   51  'RAW'
  Filename         Date            Scan       Mon    Prf  Base   #pts  Type
s16ho pt nafion in 0p1 m h2so4 potential is 1p125 
 460    1  500  512 608 512   0   5.0010     0.00000 0.00000   0.00000    1
 Collimation      Mosaic    Wavelength   T-Start   Incr.   H-field #Det    
  1       0.10000    0.00000    0.10000
  2       0.10000    0.00000    0.10000
  3       0.00000    0.01000    0.50000
  4       0.00000    0.02000    1.00000
  5       0.60000    0.00000    0.60000
  6       0.80000    0.00000    0.80000
 Mot:    Start       Step      End
     A3         A4       MIN      MONITOR      COUNTS 
      0.000      0.000    0.50        8362        6045
      0.010      0.020    0.50        8450        4972
      0.020      0.040    0.50        8420        1643
      0.030      0.060    0.50        8470        2227
      0.040      0.080    0.50        8514        2977
      0.050      0.100    0.50        8406        3695
      0.060      0.120    0.50        8484        4248
      0.070      0.140    0.50        8372        4596
      0.080      0.160    0.50        8551        5106
      0.090      0.180    0.50        8559        5331
      0.100      0.200    0.50        8684        5599
      0.110      0.220    0.50        8261        5869
      0.120      0.240    0.50        8524        6031
      0.130      0.260    0.50        8486        6067
      0.140      0.280    0.50        8496        6009
      0.150      0.300    0.50        8532        6177
      0.160      0.320    0.50        8468        6100
      0.170      0.340    0.50        8319        5803
      0.180      0.360    0.50        8484        5580
      0.190      0.380    0.50        8482        5417
      0.200      0.400    0.50        8329        5257
      0.210      0.420    0.50        8574        4946
      0.220      0.440    0.50        8516        4760
      0.230      0.460    0.50        8482        4389
      0.240      0.480    0.50        8431        4280
      0.250      0.500    0.50        8290        4119
      0.260      0.520    0.50        8578        3870
      0.270      0.540    0.50        8496        3828
      0.280      0.560    0.50        8414        3408
      0.290      0.580    0.50        8326        3368
      0.300      0.600    0.50        8625        3152
      0.310      0.620    0.50        8530        2962
      0.320      0.640    0.50        8235        2822
      0.330      0.660    0.50        8413        2631
      0.340      0.680    0.50        8185        2500
      0.350      0.700    0.50        8422        2360
      0.360      0.720    0.50        8468        2275
      0.370      0.740    0.50        8427        2133
      0.380      0.760    0.50        8307        2032
      0.390      0.780    0.50        8447        1899
      0.400      0.800    0.50        8411        1818
      0.410      0.820    0.50        8509        1709
      0.420      0.840    0.50        8468        1613
      0.430      0.860    0.50        8283        1524
      0.440      0.880    0.50        8376        1405
      0.450      0.900    0.50        8367        1340
      0.460      0.920    0.50        8517        1333
      0.470      0.940    0.50        8313        1228
      0.480      0.960    0.50        8318        1123
      0.490      0.980    0.50        8281        1020
      0.500      1.000    0.50        8481         980
