's47hn013.cg1' 'Nov 29 2010 18:30' 'I'         15.    2  'TIME'   51  'RAW'
  Filename         Date            Scan       Mon    Prf  Base   #pts  Type
s47hn pt nafion in 0p1 m h2so4 potential is 0p1 v 
 460    1  500  512 608 512   0   5.0010     0.00000 0.00000   0.00000    1
 Collimation      Mosaic    Wavelength   T-Start   Incr.   H-field #Det    
  1       0.20000    0.00400    0.40000
  2       0.20000    0.00400    0.40000
  3       0.50000    0.01000    1.00000
  4       1.00000    0.02000    2.00000
  5       0.60000    0.01200    1.20000
  6       0.80000    0.01600    1.60000
 Mot:    Start       Step      End
     A1         A2         A3         A4       MIN      MONITOR      COUNTS 
      0.200      0.200      0.500      1.000    0.50       11615        2913
      0.204      0.204      0.510      1.020    0.50       11795        2697
      0.208      0.208      0.520      1.040    0.50       11847        2504
      0.212      0.212      0.530      1.060    0.50       12111        2507
      0.216      0.216      0.540      1.080    0.50       11989        2446
      0.220      0.220      0.550      1.100    0.50       12244        2400
      0.224      0.224      0.560      1.120    0.50       12431        2387
      0.228      0.228      0.570      1.140    0.50       12673        2563
      0.232      0.232      0.580      1.160    0.50       12745        2696
      0.236      0.236      0.590      1.180    0.50       12771        2906
      0.240      0.240      0.600      1.200    0.50       12970        2818
      0.244      0.244      0.610      1.220    0.50       13071        3044
      0.248      0.248      0.620      1.240    0.50       13098        2991
      0.252      0.252      0.630      1.260    0.50       13242        2884
      0.256      0.256      0.640      1.280    0.50       13354        2836
      0.260      0.260      0.650      1.300    0.50       13387        2603
      0.264      0.264      0.660      1.320    0.50       13662        2510
      0.268      0.268      0.670      1.340    0.50       13761        2367
      0.272      0.272      0.680      1.360    0.50       13924        2127
      0.276      0.276      0.690      1.380    0.50       14071        2061
      0.280      0.280      0.700      1.400    0.50       14214        2076
      0.284      0.284      0.710      1.420    0.50       14337        2014
      0.288      0.288      0.720      1.440    0.50       14350        2191
      0.292      0.292      0.730      1.460    0.50       14356        2171
      0.296      0.296      0.740      1.480    0.50       14581        2359
      0.300      0.300      0.750      1.500    0.50       14722        2343
      0.304      0.304      0.760      1.520    0.50       14799        2395
      0.308      0.308      0.770      1.540    0.50       14959        2441
      0.312      0.312      0.780      1.560    0.50       15295        2339
      0.316      0.316      0.790      1.580    0.50       15154        2287
      0.320      0.320      0.800      1.600    0.50       15322        1998
      0.324      0.324      0.810      1.620    0.50       15505        1987
      0.328      0.328      0.820      1.640    0.50       15460        1777
      0.332      0.332      0.830      1.660    0.50       15650        1684
      0.336      0.336      0.840      1.680    0.50       15941        1565
      0.340      0.340      0.850      1.700    0.50       16123        1533
      0.344      0.344      0.860      1.720    0.50       16140        1454
      0.348      0.348      0.870      1.740    0.50       16317        1478
      0.352      0.352      0.880      1.760    0.50       16391        1559
      0.356      0.356      0.890      1.780    0.50       16711        1516
      0.360      0.360      0.900      1.800    0.50       16881        1619
      0.364      0.364      0.910      1.820    0.50       16567        1697
      0.368      0.368      0.920      1.840    0.50       16992        1615
      0.372      0.372      0.930      1.860    0.50       16950        1546
      0.376      0.376      0.940      1.880    0.50       17182        1508
      0.380      0.380      0.950      1.900    0.50       17203        1391
      0.384      0.384      0.960      1.920    0.50       17433        1287
      0.388      0.388      0.970      1.940    0.50       17710        1171
      0.392      0.392      0.980      1.960    0.50       17533        1081
      0.396      0.396      0.990      1.980    0.50       17830        1014
      0.400      0.400      1.000      2.000    0.50       17979         854
