's47hn011.cg1' 'Nov 29 2010 17:30' 'I'         15.    2  'TIME'   51  'RAW'
  Filename         Date            Scan       Mon    Prf  Base   #pts  Type
s47hn pt nafion in 0p1 m h2so4 potential is 0p1 v 
 460    1  500  512 608 512   0   5.0010     0.00000 0.00000   0.00000    1
 Collimation      Mosaic    Wavelength   T-Start   Incr.   H-field #Det    
  1       0.05000    0.00000    0.05000
  2       0.05000    0.00000    0.05000
  3       0.00000    0.01000    0.50000
  4       0.00000    0.02000    1.00000
  5       0.60000    0.00000    0.60000
  6       0.80000    0.00000    0.80000
 Mot:    Start       Step      End
     A3         A4       MIN      MONITOR      COUNTS 
      0.000      0.000    0.50        6970         407
      0.010      0.020    0.50        7024         515
      0.020      0.040    0.50        7024         636
      0.030      0.060    0.50        7039         773
      0.040      0.080    0.50        6993        1015
      0.050      0.100    0.50        7202        1270
      0.060      0.120    0.50        7001        1374
      0.070      0.140    0.50        7009        1333
      0.080      0.160    0.50        7137        1497
      0.090      0.180    0.50        7119        1410
      0.100      0.200    0.50        7079        1359
      0.110      0.220    0.50        7090        1267
      0.120      0.240    0.50        7142        1225
      0.130      0.260    0.50        7022        1171
      0.140      0.280    0.50        7213        1132
      0.150      0.300    0.50        7037        1035
      0.160      0.320    0.50        7107        1024
      0.170      0.340    0.50        7062         980
      0.180      0.360    0.50        7050         809
      0.190      0.380    0.50        7185         776
      0.200      0.400    0.50        7042         700
      0.210      0.420    0.50        7028         654
      0.220      0.440    0.50        7014         614
      0.230      0.460    0.50        7189         607
      0.240      0.480    0.50        7190         516
      0.250      0.500    0.50        7020         524
      0.260      0.520    0.50        6926         524
      0.270      0.540    0.50        6978         544
      0.280      0.560    0.50        7024         514
      0.290      0.580    0.50        7252         510
      0.300      0.600    0.50        6973         484
      0.310      0.620    0.50        7076         515
      0.320      0.640    0.50        7000         459
      0.330      0.660    0.50        7260         424
      0.340      0.680    0.50        7070         443
      0.350      0.700    0.50        6909         373
      0.360      0.720    0.50        7074         323
      0.370      0.740    0.50        6991         334
      0.380      0.760    0.50        6975         262
      0.390      0.780    0.50        7051         255
      0.400      0.800    0.50        7051         240
      0.410      0.820    0.50        7185         269
      0.420      0.840    0.50        7078         279
      0.430      0.860    0.50        6993         271
      0.440      0.880    0.50        7170         273
      0.450      0.900    0.50        7093         253
      0.460      0.920    0.50        7199         284
      0.470      0.940    0.50        6895         247
      0.480      0.960    0.50        6840         238
      0.490      0.980    0.50        6974         212
      0.500      1.000    0.50        7024         186
