's47hn012.cg1' 'Nov 29 2010 18:00' 'I'         15.    2  'TIME'   51  'RAW'
  Filename         Date            Scan       Mon    Prf  Base   #pts  Type
s47hn pt nafion in 0p1 m h2so4 potential is 0p1 v 
 460    1  500  512 608 512   0   5.0010     0.00000 0.00000   0.00000    1
 Collimation      Mosaic    Wavelength   T-Start   Incr.   H-field #Det    
  1       0.10000    0.00000    0.10000
  2       0.10000    0.00000    0.10000
  3       0.00000    0.01000    0.50000
  4       0.00000    0.02000    1.00000
  5       0.60000    0.00000    0.60000
  6       0.80000    0.00000    0.80000
 Mot:    Start       Step      End
     A3         A4       MIN      MONITOR      COUNTS 
      0.000      0.000    0.50        8501        3264
      0.010      0.020    0.50        8499        2251
      0.020      0.040    0.50        8377        1558
      0.030      0.060    0.50        8535        1891
      0.040      0.080    0.50        8337        2511
      0.050      0.100    0.50        8467        2895
      0.060      0.120    0.50        8529        3018
      0.070      0.140    0.50        8549        3290
      0.080      0.160    0.50        8481        3555
      0.090      0.180    0.50        8277        3384
      0.100      0.200    0.50        8475        3485
      0.110      0.220    0.50        8594        3508
      0.120      0.240    0.50        8584        3449
      0.130      0.260    0.50        8468        3458
      0.140      0.280    0.50        8383        3365
      0.150      0.300    0.50        8427        3287
      0.160      0.320    0.50        8509        3247
      0.170      0.340    0.50        8489        3113
      0.180      0.360    0.50        8505        2860
      0.190      0.380    0.50        8433        2672
      0.200      0.400    0.50        8424        2571
      0.210      0.420    0.50        8437        2378
      0.220      0.440    0.50        8487        2243
      0.230      0.460    0.50        8611        2024
      0.240      0.480    0.50        8546        2007
      0.250      0.500    0.50        8336        1941
      0.260      0.520    0.50        8539        1960
      0.270      0.540    0.50        8504        1906
      0.280      0.560    0.50        8557        2004
      0.290      0.580    0.50        8327        1884
      0.300      0.600    0.50        8622        1934
      0.310      0.620    0.50        8491        1837
      0.320      0.640    0.50        8489        1736
      0.330      0.660    0.50        8653        1582
      0.340      0.680    0.50        8420        1554
      0.350      0.700    0.50        8486        1424
      0.360      0.720    0.50        8369        1259
      0.370      0.740    0.50        8605        1137
      0.380      0.760    0.50        8601        1065
      0.390      0.780    0.50        8548         915
      0.400      0.800    0.50        8410         981
      0.410      0.820    0.50        8444         956
      0.420      0.840    0.50        8505        1009
      0.430      0.860    0.50        8417         963
      0.440      0.880    0.50        8317        1000
      0.450      0.900    0.50        8547         934
      0.460      0.920    0.50        8413         963
      0.470      0.940    0.50        8419         941
      0.480      0.960    0.50        8592         897
      0.490      0.980    0.50        8486         766
      0.500      1.000    0.50        8485         789
