's47hn002.cg1' 'Nov 29 2010 13:38' 'I'         15.    1  'TIME'   51  'RAW'
  Filename         Date            Scan       Mon    Prf  Base   #pts  Type
s47hn pt nafion in 0p1 m h2so4 potential is 0p1 v 
 460    1  500  512 608 512   0   5.0010     0.00000 0.00000   0.00000    1
 Collimation      Mosaic    Wavelength   T-Start   Incr.   H-field #Det    
  1       0.10000    0.00000    0.10000
  2       0.10000    0.00000    0.10000
  3       0.00000    0.01000    0.50000
  4       0.00000    0.02000    1.00000
  5       0.60000    0.00000    0.60000
  6       0.80000    0.00000    0.80000
 Mot:    Start       Step      End
     A3         A4       MIN      MONITOR      COUNTS 
      0.000      0.000    0.25        4218        1943
      0.010      0.020    0.25        4255        1311
      0.020      0.040    0.25        4302         805
      0.030      0.060    0.25        4386         972
      0.040      0.080    0.25        4242        1253
      0.050      0.100    0.25        4263        1499
      0.060      0.120    0.25        4342        1568
      0.070      0.140    0.25        4282        1682
      0.080      0.160    0.25        4255        1688
      0.090      0.180    0.25        4314        1719
      0.100      0.200    0.25        4243        1785
      0.110      0.220    0.25        4217        1757
      0.120      0.240    0.25        4278        1814
      0.130      0.260    0.25        4169        1754
      0.140      0.280    0.25        4305        1710
      0.150      0.300    0.25        4237        1753
      0.160      0.320    0.25        4377        1682
      0.170      0.340    0.25        4324        1615
      0.180      0.360    0.25        4255        1498
      0.190      0.380    0.25        4315        1396
      0.200      0.400    0.25        4353        1285
      0.210      0.420    0.25        4200        1193
      0.220      0.440    0.25        4123        1140
      0.230      0.460    0.25        4200        1036
      0.240      0.480    0.25        4290        1039
      0.250      0.500    0.25        4301        1007
      0.260      0.520    0.25        4227         995
      0.270      0.540    0.25        4283         913
      0.280      0.560    0.25        4199        1054
      0.290      0.580    0.25        4266         953
      0.300      0.600    0.25        4286         966
      0.310      0.620    0.25        4301         881
      0.320      0.640    0.25        4215         931
      0.330      0.660    0.25        4147         852
      0.340      0.680    0.25        4200         745
      0.350      0.700    0.25        4253         699
      0.360      0.720    0.25        4296         630
      0.370      0.740    0.25        4310         549
      0.380      0.760    0.25        4288         539
      0.390      0.780    0.25        4229         479
      0.400      0.800    0.25        4371         470
      0.410      0.820    0.25        4300         470
      0.420      0.840    0.25        4388         470
      0.430      0.860    0.25        4192         485
      0.440      0.880    0.25        4326         450
      0.450      0.900    0.25        4348         511
      0.460      0.920    0.25        4228         486
      0.470      0.940    0.25        4371         493
      0.480      0.960    0.25        4258         506
      0.490      0.980    0.25        4275         389
      0.500      1.000    0.25        4223         365
