's47hn036.cg1' 'Nov 30 2010 05:40' 'I'         15.    2  'TIME'   51  'RAW'
  Filename         Date            Scan       Mon    Prf  Base   #pts  Type
s47hn pt nafion in 0p1 m h2so4 potential is 0p1 v 
 460    1  500  512 608 512   0   5.0010     0.00000 0.00000   0.00000    1
 Collimation      Mosaic    Wavelength   T-Start   Incr.   H-field #Det    
  1       0.05000    0.00000    0.05000
  2       0.05000    0.00000    0.05000
  3       0.00000    0.01000    0.50000
  4       0.00000    0.02000    1.00000
  5       0.60000    0.00000    0.60000
  6       0.80000    0.00000    0.80000
 Mot:    Start       Step      End
     A3         A4       MIN      MONITOR      COUNTS 
      0.000      0.000    0.50        6996         349
      0.010      0.020    0.50        6986         421
      0.020      0.040    0.50        7070         574
      0.030      0.060    0.50        6952         710
      0.040      0.080    0.50        6977         999
      0.050      0.100    0.50        6860        1209
      0.060      0.120    0.50        6890        1239
      0.070      0.140    0.50        6992        1347
      0.080      0.160    0.50        7008        1337
      0.090      0.180    0.50        7089        1270
      0.100      0.200    0.50        7025        1356
      0.110      0.220    0.50        6782        1225
      0.120      0.240    0.50        7017        1226
      0.130      0.260    0.50        6947        1102
      0.140      0.280    0.50        7013        1093
      0.150      0.300    0.50        6861        1068
      0.160      0.320    0.50        7008         963
      0.170      0.340    0.50        7148         926
      0.180      0.360    0.50        6969         817
      0.190      0.380    0.50        7065         723
      0.200      0.400    0.50        7073         678
      0.210      0.420    0.50        6972         635
      0.220      0.440    0.50        7066         626
      0.230      0.460    0.50        6938         543
      0.240      0.480    0.50        7121         499
      0.250      0.500    0.50        6933         489
      0.260      0.520    0.50        6774         499
      0.270      0.540    0.50        7053         470
      0.280      0.560    0.50        6777         505
      0.290      0.580    0.50        6992         537
      0.300      0.600    0.50        7155         526
      0.310      0.620    0.50        6920         521
      0.320      0.640    0.50        6994         496
      0.330      0.660    0.50        6977         409
      0.340      0.680    0.50        6929         376
      0.350      0.700    0.50        7046         368
      0.360      0.720    0.50        6815         311
      0.370      0.740    0.50        7089         292
      0.380      0.760    0.50        7014         292
      0.390      0.780    0.50        7062         254
      0.400      0.800    0.50        7052         268
      0.410      0.820    0.50        6965         247
      0.420      0.840    0.50        7054         232
      0.430      0.860    0.50        6936         253
      0.440      0.880    0.50        7033         291
      0.450      0.900    0.50        7110         265
      0.460      0.920    0.50        7027         248
      0.470      0.940    0.50        7036         268
      0.480      0.960    0.50        7052         238
      0.490      0.980    0.50        6916         221
      0.500      1.000    0.50        6919         198
