's47hn038.cg1' 'Nov 30 2010 06:40' 'I'         15.    2  'TIME'   51  'RAW'
  Filename         Date            Scan       Mon    Prf  Base   #pts  Type
s47hn pt nafion in 0p1 m h2so4 potential is 0p1 v 
 460    1  500  512 608 512   0   5.0010     0.00000 0.00000   0.00000    1
 Collimation      Mosaic    Wavelength   T-Start   Incr.   H-field #Det    
  1       0.20000    0.00400    0.40000
  2       0.20000    0.00400    0.40000
  3       0.50000    0.01000    1.00000
  4       1.00000    0.02000    2.00000
  5       0.60000    0.01200    1.20000
  6       0.80000    0.01600    1.60000
 Mot:    Start       Step      End
     A1         A2         A3         A4       MIN      MONITOR      COUNTS 
      0.200      0.200      0.500      1.000    0.50       11640        2957
      0.204      0.204      0.510      1.020    0.50       11665        2706
      0.208      0.208      0.520      1.040    0.50       11804        2520
      0.212      0.212      0.530      1.060    0.50       11752        2421
      0.216      0.216      0.540      1.080    0.50       12057        2287
      0.220      0.220      0.550      1.100    0.50       12254        2372
      0.224      0.224      0.560      1.120    0.50       12113        2465
      0.228      0.228      0.570      1.140    0.50       12454        2516
      0.232      0.232      0.580      1.160    0.50       12640        2607
      0.236      0.236      0.590      1.180    0.50       12873        2842
      0.240      0.240      0.600      1.200    0.50       12682        2843
      0.244      0.244      0.610      1.220    0.50       13059        2987
      0.248      0.248      0.620      1.240    0.50       13064        3030
      0.252      0.252      0.630      1.260    0.50       13085        2954
      0.256      0.256      0.640      1.280    0.50       13469        2790
      0.260      0.260      0.650      1.300    0.50       13486        2655
      0.264      0.264      0.660      1.320    0.50       13587        2510
      0.268      0.268      0.670      1.340    0.50       13774        2254
      0.272      0.272      0.680      1.360    0.50       13960        2160
      0.276      0.276      0.690      1.380    0.50       13914        2080
      0.280      0.280      0.700      1.400    0.50       14067        2003
      0.284      0.284      0.710      1.420    0.50       14114        2115
      0.288      0.288      0.720      1.440    0.50       14348        2137
      0.292      0.292      0.730      1.460    0.50       14447        2168
      0.296      0.296      0.740      1.480    0.50       14660        2219
      0.300      0.300      0.750      1.500    0.50       14442        2388
      0.304      0.304      0.760      1.520    0.50       14795        2241
      0.308      0.308      0.770      1.540    0.50       15207        2337
      0.312      0.312      0.780      1.560    0.50       15133        2370
      0.316      0.316      0.790      1.580    0.50       15244        2209
      0.320      0.320      0.800      1.600    0.50       15540        1990
      0.324      0.324      0.810      1.620    0.50       15545        1929
      0.328      0.328      0.820      1.640    0.50       15695        1688
      0.332      0.332      0.830      1.660    0.50       15557        1554
      0.336      0.336      0.840      1.680    0.50       15710        1552
      0.340      0.340      0.850      1.700    0.50       15759        1492
      0.344      0.344      0.860      1.720    0.50       16339        1439
      0.348      0.348      0.870      1.740    0.50       16274        1570
      0.352      0.352      0.880      1.760    0.50       16364        1478
      0.356      0.356      0.890      1.780    0.50       16591        1579
      0.360      0.360      0.900      1.800    0.50       16633        1595
      0.364      0.364      0.910      1.820    0.50       16890        1619
      0.368      0.368      0.920      1.840    0.50       16983        1607
      0.372      0.372      0.930      1.860    0.50       16862        1544
      0.376      0.376      0.940      1.880    0.50       17323        1476
      0.380      0.380      0.950      1.900    0.50       17304        1384
      0.384      0.384      0.960      1.920    0.50       17355        1304
      0.388      0.388      0.970      1.940    0.50       17576        1211
      0.392      0.392      0.980      1.960    0.50       17615        1047
      0.396      0.396      0.990      1.980    0.50       17537         923
      0.400      0.400      1.000      2.000    0.50       18037         919
