's47hn037.cg1' 'Nov 30 2010 06:11' 'I'         15.    2  'TIME'   51  'RAW'
  Filename         Date            Scan       Mon    Prf  Base   #pts  Type
s47hn pt nafion in 0p1 m h2so4 potential is 0p1 v 
 460    1  500  512 608 512   0   5.0010     0.00000 0.00000   0.00000    1
 Collimation      Mosaic    Wavelength   T-Start   Incr.   H-field #Det    
  1       0.10000    0.00000    0.10000
  2       0.10000    0.00000    0.10000
  3       0.00000    0.01000    0.50000
  4       0.00000    0.02000    1.00000
  5       0.60000    0.00000    0.60000
  6       0.80000    0.00000    0.80000
 Mot:    Start       Step      End
     A3         A4       MIN      MONITOR      COUNTS 
      0.000      0.000    0.50        8553        2881
      0.010      0.020    0.50        8416        2101
      0.020      0.040    0.50        8370        1568
      0.030      0.060    0.50        8434        1874
      0.040      0.080    0.50        8384        2426
      0.050      0.100    0.50        8430        2851
      0.060      0.120    0.50        8439        2993
      0.070      0.140    0.50        8435        3124
      0.080      0.160    0.50        8453        3275
      0.090      0.180    0.50        8435        3286
      0.100      0.200    0.50        8316        3445
      0.110      0.220    0.50        8479        3280
      0.120      0.240    0.50        8755        3235
      0.130      0.260    0.50        8505        3195
      0.140      0.280    0.50        8536        3144
      0.150      0.300    0.50        8365        3204
      0.160      0.320    0.50        8538        3118
      0.170      0.340    0.50        8345        2945
      0.180      0.360    0.50        8565        2763
      0.190      0.380    0.50        8281        2606
      0.200      0.400    0.50        8550        2435
      0.210      0.420    0.50        8481        2295
      0.220      0.440    0.50        8327        2167
      0.230      0.460    0.50        8396        2007
      0.240      0.480    0.50        8271        1935
      0.250      0.500    0.50        8360        1954
      0.260      0.520    0.50        8500        1915
      0.270      0.540    0.50        8440        1870
      0.280      0.560    0.50        8461        1927
      0.290      0.580    0.50        8405        1909
      0.300      0.600    0.50        8519        1877
      0.310      0.620    0.50        8518        1869
      0.320      0.640    0.50        8409        1825
      0.330      0.660    0.50        8491        1618
      0.340      0.680    0.50        8473        1481
      0.350      0.700    0.50        8329        1358
      0.360      0.720    0.50        8555        1240
      0.370      0.740    0.50        8453        1136
      0.380      0.760    0.50        8378        1032
      0.390      0.780    0.50        8454        1004
      0.400      0.800    0.50        8492         962
      0.410      0.820    0.50        8578         955
      0.420      0.840    0.50        8495         933
      0.430      0.860    0.50        8575         992
      0.440      0.880    0.50        8502         902
      0.450      0.900    0.50        8553         957
      0.460      0.920    0.50        8511         985
      0.470      0.940    0.50        8349         900
      0.480      0.960    0.50        8318         847
      0.490      0.980    0.50        8317         866
      0.500      1.000    0.50        8532         749
