's7so2012.cg1' 'Dec  3 2010 02:50' 'I'         30.    1  'TIME'   64  'RAW'
  Filename         Date            Scan       Mon    Prf  Base   #pts  Type
s7so2 sd07 pt_naf 0p1 m h2so4 1p16 v pt surf 2nd r
 460    1  500  512 608 512   0   5.0010     0.00000 0.00000   0.00000    1
 Collimation      Mosaic    Wavelength   T-Start   Incr.   H-field #Det    
  1       1.60000    0.01600    2.60800
  2       1.60000    0.01600    2.60800
  3       4.00000    0.04000    6.52000
  4       8.00000    0.08000   13.04000
  5       4.80000    0.04800    7.82400
  6       6.40000    0.06400   10.43200
 Mot:    Start       Step      End
     A1         A2         A3         A4       MIN      MONITOR      COUNTS 
      1.600      1.600      4.000      8.000    0.50       54621          73
      1.616      1.616      4.040      8.080    0.50       54874          78
      1.632      1.632      4.080      8.160    0.50       55390          80
      1.648      1.648      4.120      8.240    0.50       55664          80
      1.664      1.664      4.160      8.320    0.50       56309          76
      1.680      1.680      4.200      8.400    0.50       56556         100
      1.696      1.696      4.240      8.480    0.50       57037         108
      1.712      1.712      4.280      8.560    0.50       57762          75
      1.728      1.728      4.320      8.640    0.50       58439         108
      1.744      1.744      4.360      8.720    0.50       58794         105
      1.760      1.760      4.400      8.800    0.50       58812         105
      1.776      1.776      4.440      8.880    0.50       59674         113
      1.792      1.792      4.480      8.960    0.50       60279         103
      1.808      1.808      4.520      9.040    0.50       60807         122
      1.824      1.824      4.560      9.120    0.50       60861         126
      1.840      1.840      4.600      9.200    0.50       61330         122
      1.856      1.856      4.640      9.280    0.50       61451         117
      1.872      1.872      4.680      9.360    0.50       62153         112
      1.888      1.888      4.720      9.440    0.50       63162         113
      1.904      1.904      4.760      9.520    0.50       63783         141
      1.920      1.920      4.800      9.600    0.50       63808         110
      1.936      1.936      4.840      9.680    0.50       64082         143
      1.952      1.952      4.880      9.760    0.50       65097         143
      1.968      1.968      4.920      9.840    0.50       65683         146
      1.984      1.984      4.960      9.920    0.50       66253         141
      2.000      2.000      5.000     10.000    0.50       67407         148
      2.016      2.016      5.040     10.080    0.50       67025         140
      2.032      2.032      5.080     10.160    0.50       67568         139
      2.048      2.048      5.120     10.240    0.50       67765         149
      2.064      2.064      5.160     10.320    0.50       68785         139
      2.080      2.080      5.200     10.400    0.50       68853         155
      2.096      2.096      5.240     10.480    0.50       68902         151
      2.112      2.112      5.280     10.560    0.50       69728         156
      2.128      2.128      5.320     10.640    0.50       70761         149
      2.144      2.144      5.360     10.720    0.50       71308         162
      2.160      2.160      5.400     10.800    0.50       71650         178
      2.176      2.176      5.440     10.880    0.50       72082         164
      2.192      2.192      5.480     10.960    0.50       72280         190
      2.208      2.208      5.520     11.040    0.50       73011         207
      2.224      2.224      5.560     11.120    0.50       73137         193
      2.240      2.240      5.600     11.200    0.50       73561         165
      2.256      2.256      5.640     11.280    0.50       74607         196
      2.272      2.272      5.680     11.360    0.50       74098         193
      2.288      2.288      5.720     11.440    0.50       75081         199
      2.304      2.304      5.760     11.520    0.50       74960         217
      2.320      2.320      5.800     11.600    0.50       76394         207
      2.336      2.336      5.840     11.680    0.50       76722         205
      2.352      2.352      5.880     11.760    0.50       76694         250
      2.368      2.368      5.920     11.840    0.50       77605         213
      2.384      2.384      5.960     11.920    0.50       77702         248
      2.400      2.400      6.000     12.000    0.50       78485         243
      2.416      2.416      6.040     12.080    0.50       78372         242
      2.432      2.432      6.080     12.160    0.50       79338         254
      2.448      2.448      6.120     12.240    0.50       79287         255
      2.464      2.464      6.160     12.320    0.50       80707         232
      2.480      2.480      6.200     12.400    0.50       80467         247
      2.496      2.496      6.240     12.480    0.50       81193         239
      2.512      2.512      6.280     12.560    0.50       81627         266
      2.528      2.528      6.320     12.640    0.50       81940         272
      2.544      2.544      6.360     12.720    0.50       82929         257
      2.560      2.560      6.400     12.800    0.50       83215         247
      2.576      2.576      6.440     12.880    0.50       83482         267
      2.592      2.592      6.480     12.960    0.50       83697         282
      2.608      2.608      6.520     13.040    0.50       84751         288
