'sd07w002.cg1' 'Dec  1 2010 16:38' 'I'         15.    1  'TIME'   51  'RAW'
  Filename         Date            Scan       Mon    Prf  Base   #pts  Type
sd07w sample sd07 pt_naf in water annealed at 210 
 460    1  500  512 608 512   0   5.0010     0.00000 0.00000   0.00000    1
 Collimation      Mosaic    Wavelength   T-Start   Incr.   H-field #Det    
  1       0.20000    0.00400    0.40000
  2       0.20000    0.00400    0.40000
  3       0.50000    0.01000    1.00000
  4       1.00000    0.02000    2.00000
  5       0.60000    0.01200    1.20000
  6       0.80000    0.01600    1.60000
 Mot:    Start       Step      End
     A1         A2         A3         A4       MIN      MONITOR      COUNTS 
      0.200      0.200      0.500      1.000    0.25        5747         622
      0.204      0.204      0.510      1.020    0.25        5888         644
      0.208      0.208      0.520      1.040    0.25        5924         714
      0.212      0.212      0.530      1.060    0.25        6106         654
      0.216      0.216      0.540      1.080    0.25        6025         638
      0.220      0.220      0.550      1.100    0.25        5989         542
      0.224      0.224      0.560      1.120    0.25        6117         468
      0.228      0.228      0.570      1.140    0.25        6173         332
      0.232      0.232      0.580      1.160    0.25        6316         271
      0.236      0.236      0.590      1.180    0.25        6342         203
      0.240      0.240      0.600      1.200    0.25        6478         134
      0.244      0.244      0.610      1.220    0.25        6410          62
      0.248      0.248      0.620      1.240    0.25        6567          32
      0.252      0.252      0.630      1.260    0.25        6499          26
      0.256      0.256      0.640      1.280    0.25        6620          18
      0.260      0.260      0.650      1.300    0.25        6722          28
      0.264      0.264      0.660      1.320    0.25        6730          38
      0.268      0.268      0.670      1.340    0.25        6977          53
      0.272      0.272      0.680      1.360    0.25        7030          76
      0.276      0.276      0.690      1.380    0.25        6815          76
      0.280      0.280      0.700      1.400    0.25        6903         100
      0.284      0.284      0.710      1.420    0.25        7089          96
      0.288      0.288      0.720      1.440    0.25        7182          91
      0.292      0.292      0.730      1.460    0.25        7321          79
      0.296      0.296      0.740      1.480    0.25        7228          81
      0.300      0.300      0.750      1.500    0.25        7333          52
      0.304      0.304      0.760      1.520    0.25        7487          45
      0.308      0.308      0.770      1.540    0.25        7599          45
      0.312      0.312      0.780      1.560    0.25        7596          28
      0.316      0.316      0.790      1.580    0.25        7557          20
      0.320      0.320      0.800      1.600    0.25        7735          26
      0.324      0.324      0.810      1.620    0.25        7656          36
      0.328      0.328      0.820      1.640    0.25        7812          38
      0.332      0.332      0.830      1.660    0.25        7862          46
      0.336      0.336      0.840      1.680    0.25        7965          52
      0.340      0.340      0.850      1.700    0.25        7944          59
      0.344      0.344      0.860      1.720    0.25        7987          80
      0.348      0.348      0.870      1.740    0.25        8092          81
      0.352      0.352      0.880      1.760    0.25        8194          72
      0.356      0.356      0.890      1.780    0.25        8394          76
      0.360      0.360      0.900      1.800    0.25        8442          69
      0.364      0.364      0.910      1.820    0.25        8324          53
      0.368      0.368      0.920      1.840    0.25        8472          54
      0.372      0.372      0.930      1.860    0.25        8639          33
      0.376      0.376      0.940      1.880    0.25        8509          17
      0.380      0.380      0.950      1.900    0.25        8547          28
      0.384      0.384      0.960      1.920    0.25        8670          29
      0.388      0.388      0.970      1.940    0.25        8720          39
      0.392      0.392      0.980      1.960    0.25        8714          51
      0.396      0.396      0.990      1.980    0.25        8976          50
      0.400      0.400      1.000      2.000    0.25        9029          77
