'sd07w001.cg1' 'Dec  1 2010 16:19' 'I'         15.    1  'TIME'   51  'RAW'
  Filename         Date            Scan       Mon    Prf  Base   #pts  Type
sd07w sample sd07 pt_naf in water annealed at 210 
 460    1  500  512 608 512   0   5.0010     0.00000 0.00000   0.00000    1
 Collimation      Mosaic    Wavelength   T-Start   Incr.   H-field #Det    
  1       0.10000    0.00000    0.10000
  2       0.10000    0.00000    0.10000
  3       0.00000    0.01000    0.50000
  4       0.00000    0.02000    1.00000
  5       0.60000    0.00000    0.60000
  6       0.80000    0.00000    0.80000
 Mot:    Start       Step      End
     A3         A4       MIN      MONITOR      COUNTS 
      0.000      0.000    0.25        4215        3529
      0.010      0.020    0.25        4245        2836
      0.020      0.040    0.25        4146        1142
      0.030      0.060    0.25        4078        1541
      0.040      0.080    0.25        4251        1830
      0.050      0.100    0.25        4246        2081
      0.060      0.120    0.25        4226        2194
      0.070      0.140    0.25        4233        2435
      0.080      0.160    0.25        4228        2948
      0.090      0.180    0.25        4077        3048
      0.100      0.200    0.25        4233        3410
      0.110      0.220    0.25        4232        4046
      0.120      0.240    0.25        4195        4241
      0.130      0.260    0.25        4173        4664
      0.140      0.280    0.25        4251        4855
      0.150      0.300    0.25        4322        5090
      0.160      0.320    0.25        4187        5057
      0.170      0.340    0.25        4197        5372
      0.180      0.360    0.25        4167        5348
      0.190      0.380    0.25        4173        4957
      0.200      0.400    0.25        4183        4477
      0.210      0.420    0.25        4295        3708
      0.220      0.440    0.25        4097        2750
      0.230      0.460    0.25        4287        1777
      0.240      0.480    0.25        4194         830
      0.250      0.500    0.25        4286         422
      0.260      0.520    0.25        4206         381
      0.270      0.540    0.25        4157         606
      0.280      0.560    0.25        4209         867
      0.290      0.580    0.25        4166        1189
      0.300      0.600    0.25        4168        1341
      0.310      0.620    0.25        4234        1407
      0.320      0.640    0.25        4188        1448
      0.330      0.660    0.25        4100        1335
      0.340      0.680    0.25        4368        1249
      0.350      0.700    0.25        4193        1125
      0.360      0.720    0.25        4326         906
      0.370      0.740    0.25        4144         780
      0.380      0.760    0.25        4191         589
      0.390      0.780    0.25        4121         432
      0.400      0.800    0.25        4222         275
      0.410      0.820    0.25        4199         187
      0.420      0.840    0.25        4214         101
      0.430      0.860    0.25        4206          79
      0.440      0.880    0.25        4273          62
      0.450      0.900    0.25        4168          46
      0.460      0.920    0.25        4224          77
      0.470      0.940    0.25        4039          93
      0.480      0.960    0.25        4029         143
      0.490      0.980    0.25        4290         152
      0.500      1.000    0.25        4128         175
